1976 US Standard Atmosphere, tabulated
Altitude (km)	Pressure (Pa)	T (K)         	Rho (kg/M^2)	mu (cP) 	SonicVel (m/s)	
0.00000000	101325.00000000	288.14999390	1.22499918	0.01789380	340.29410418
1.00000000	89874.57027130	281.64999390	1.11164183	0.01757845	336.43408624
2.00000000	79495.21509240	275.14999390	1.00648958	0.01725961	332.52926402
3.00000000	70108.54410349	268.64999390	0.90912147	0.01693719	328.57804016
4.00000000	61640.23462290	262.14999390	0.81912887	0.01661108	324.57872007
5.00000000	54019.91133923	255.64999390	0.73611536	0.01628118	320.52950342
6.00000000	47181.02674616	249.14999390	0.65969669	0.01594739	316.42847471
7.00000000	41060.74233370	242.64999390	0.58950068	0.01560960	312.27359263
8.00000000	35599.81054993	236.14999390	0.52516715	0.01526770	308.06267819
9.00000000	30742.45754836	229.64999390	0.46634781	0.01492157	303.79340141
10.00000000	26435.99853516	223.14999390	0.41270206	0.01457109	299.46326617
11.00000000	22632.00073242	216.64999390	0.36391677	0.01421613	295.06959320
12.00000000	19330.35094750	216.64999390	0.31082709	0.01421613	295.06959320
13.00000000	16510.35947601	216.64999390	0.26548235	0.01421613	295.06959320
14.00000000	14101.76001291	216.64999390	0.22675269	0.01421613	295.06959320
15.00000000	12044.53699211	216.64999390	0.19367307	0.01421613	295.06959320
16.00000000	10287.43016627	216.64999390	0.16541924	0.01421613	295.06959320
17.00000000	8786.65734475	216.64999390	0.14128720	0.01421613	295.06959320
18.00000000	7504.82346380	216.64999390	0.12067564	0.01421613	295.06959320
19.00000000	6409.98880609	216.64999390	0.10307098	0.01421613	295.06959320
20.00000000	5474.80010986	216.64999390	0.08803338	0.01421613	295.06959320
21.00000000	4677.81048825	217.64999390	0.07487240	0.01427104	295.74979143
22.00000000	3999.72548551	218.64999390	0.06372627	0.01432583	296.42842885
23.00000000	3422.37894077	219.64999390	0.05427936	0.01438052	297.10551616
24.00000000	2930.44471560	220.64999390	0.04626658	0.01443510	297.78106393
25.00000000	2510.98268133	221.64999390	0.03946515	0.01448957	298.45508261
26.00000000	2153.05887355	222.64999390	0.03368767	0.01454394	299.12758254
27.00000000	1847.42744054	223.64999390	0.02877639	0.01459820	299.79857394
28.00000000	1586.26411960	224.64999390	0.02459840	0.01465236	300.46806692
29.00000000	1362.94271537	225.64999390	0.02104166	0.01470641	301.13607147
30.00000000	1171.80004120	226.64999390	0.01801091	0.01476035	301.80259747
31.00000000	1008.17477639	227.64999390	0.01542787	0.01481419	302.46765470
32.00000000	868.01004410	228.64999390	0.01322487	0.01486793	303.13125283
33.00000000	748.22078603	231.44999385	0.01126187	0.01501785	304.98164611
34.00000000	646.11578682	234.24999380	0.00960879	0.01516696	306.82088013
35.00000000	558.91796585	237.04999375	0.00821383	0.01531529	308.64915440
36.00000000	484.31189872	239.84999371	0.00703434	0.01546283	310.46666251
37.00000000	420.36291744	242.64999366	0.00603506	0.01560960	312.27359247
38.00000000	365.45109976	245.44999361	0.00518685	0.01575561	314.07012685
39.00000000	318.21727906	248.24999356	0.00446552	0.01590086	315.85644303
40.00000000	277.51998901	251.05000305	0.00385099	0.01604537	317.63271944
41.00000000	242.39412059	253.85000300	0.00332646	0.01618914	319.39911159
42.00000000	212.02868314	256.65000296	0.00287800	0.01633218	321.15578853
43.00000000	185.73676686	259.45000291	0.00249392	0.01647451	322.90290883
44.00000000	162.93648258	262.25000286	0.00216442	0.01661612	324.64062677
45.00000000	143.13402105	265.05000281	0.00188128	0.01675703	326.36909255
46.00000000	125.90958462	267.85000277	0.00163759	0.01689725	328.08845240
47.00000000	110.89999676	270.64999390	0.00142745	0.01703678	329.79884335
48.00000000	97.74894343	270.64999390	0.00125818	0.01703678	329.79884335
49.00000000	86.15740506	270.64999390	0.00110898	0.01703678	329.79884335
50.00000000	75.94400048	270.64999390	0.00097751	0.01703678	329.79884335
51.00000000	66.93800092	270.64999390	0.00086159	0.01703678	329.79884335
52.00000000	58.96139349	267.84999394	0.00076686	0.01689725	328.08844700
53.00000000	51.86610756	265.04999399	0.00068170	0.01675703	326.36908712
54.00000000	45.56256758	262.24999404	0.00060524	0.01661612	324.64062131
55.00000000	39.96949334	259.44999409	0.00053668	0.01647451	322.90290334
56.00000000	35.01320823	256.64999413	0.00047526	0.01633218	321.15578301
57.00000000	30.62699863	253.84999418	0.00042031	0.01618914	319.39910604
58.00000000	26.75052125	251.04999423	0.00037120	0.01604537	317.63271386
59.00000000	23.32925519	248.24999428	0.00032738	0.01590086	315.85644348
60.00000000	20.31400055	245.44999695	0.00028832	0.01575561	314.07012899
61.00000000	17.66039188	242.64999700	0.00025355	0.01560960	312.27359462
62.00000000	15.32849779	239.84999704	0.00022264	0.01546283	310.46666468
63.00000000	13.28240339	237.04999709	0.00019520	0.01531529	308.64915657
64.00000000	11.48985066	234.24999714	0.00017087	0.01516696	306.82088232
65.00000000	9.92190280	231.44999719	0.00014934	0.01501785	304.98164831
66.00000000	8.55263598	228.64999723	0.00013031	0.01486793	303.13125504
67.00000000	7.35885642	225.84999728	0.00011351	0.01471721	301.26949689
68.00000000	6.31984120	223.04999733	0.00009871	0.01456566	299.39616186
69.00000000	5.41710080	220.24999738	0.00008568	0.01441328	297.51103124
70.00000000	4.63420004	217.44999695	0.00007424	0.01426006	295.61387907
71.00000000	3.95639986	214.64999390	0.00006421	0.01410599	293.70447090
72.00000000	3.37174594	212.64999390	0.00005524	0.01399542	292.33297389
73.00000000	2.86915011	210.64999390	0.00004745	0.01388440	290.95501203
74.00000000	2.43771506	208.64999390	0.00004070	0.01377293	289.57049301
75.00000000	2.06790683	206.64999390	0.00003486	0.01366101	288.17932233
76.00000000	1.75139496	204.64999390	0.00002981	0.01354864	286.78140320
77.00000000	1.48091002	202.64999390	0.00002546	0.01343581	285.37663643
78.00000000	1.25011696	200.64999390	0.00002170	0.01332251	283.96492040
79.00000000	1.05350242	198.64999390	0.00001848	0.01320875	282.54615095
80.00000000	0.88627003	196.64999390	0.00001570	0.01309451	281.12022128
81.00000000	0.74427183	194.64999390	0.00001332	0.01297980	279.68702188
82.00000000	0.62389840	192.64999390	0.00001128	0.01286461	278.24644042
83.00000000	0.52203136	190.64999390	0.00000954	0.01274894	276.79836164
84.00000000	0.43597629	188.64999390	0.00000805	0.01263278	275.34266724
85.00000000	0.36349205	187.57909390	0.00000675	0.01257038	274.56004301
86.00000000	0.30294815	187.43729389	0.00000563	0.01256211	274.45624686
87.00000000	0.25245374	187.29549389	0.00000470	0.01255383	274.35241144
88.00000000	0.21034653	187.15369389	0.00000392	0.01254555	274.24853671
89.00000000	0.17523821	187.01189389	0.00000326	0.01253727	274.14462262
90.00000000	0.18359000	186.86999512	0.00000342	0.01252898	274.04059670
91.00000000	0.15381000	186.86999512	0.00000287	0.01252898	274.04059670
92.00000000	0.12816838	187.78219509	0.00000238	0.01258222	274.70864269
93.00000000	0.10689589	188.69439507	0.00000197	0.01263536	275.37506803
94.00000000	0.08923213	189.60659504	0.00000164	0.01268840	276.03988448
95.00000000	0.07455178	190.51879501	0.00000136	0.01274134	276.70310361
96.00000000	0.06234012	191.43099499	0.00000113	0.01279417	277.36473690
97.00000000	0.05217309	192.34319496	0.00000094	0.01284690	278.02479566
98.00000000	0.04370099	193.25539494	0.00000079	0.01289953	278.68329108
99.00000000	0.03663519	194.16759491	0.00000066	0.01295206	279.34023422
100.00000000	0.03201000	195.08000183	0.00000057	0.01300451	279.99578452
101.00000000	0.02690059	197.83200192	0.00000047	0.01316208	281.96382297
102.00000000	0.02266111	200.58400202	0.00000039	0.01331876	283.91821987
103.00000000	0.01913443	203.33600211	0.00000033	0.01347456	285.85925504
104.00000000	0.01619338	206.08800220	0.00000027	0.01362948	287.78719882
105.00000000	0.01448000	208.83999634	0.00000024	0.01378354	289.70230845
106.00000000	0.01232434	215.07199621	0.00000020	0.01412927	293.99304093
107.00000000	0.01053801	221.30399609	0.00000017	0.01447074	298.22204598
108.00000000	0.00904987	227.53599596	0.00000014	0.01480806	302.39191341
109.00000000	0.00780391	233.76799583	0.00000012	0.01514135	306.50505688
110.00000000	0.00710000	240.00000000	0.00000010	0.01547071	310.56373292
111.00000000	0.00617922	252.00000000	0.00000009	0.01609423	318.23312810
112.00000000	0.00541273	264.00000000	0.00000007	0.01670427	325.72199101
113.00000000	0.00476931	276.00000000	0.00000006	0.01730151	333.04250035
114.00000000	0.00422508	288.00000000	0.00000005	0.01788656	340.20552413
115.00000000	0.00401000	300.00000000	0.00000005	0.01846002	347.22080908
116.00000000	0.00358634	312.00000000	0.00000004	0.01902241	354.09713621
117.00000000	0.00322099	324.00000000	0.00000003	0.01957425	360.84244967
118.00000000	0.00290418	336.00000000	0.00000003	0.02011603	367.46396434
119.00000000	0.00262807	348.00000000	0.00000003	0.02064818	373.96825627
120.00000000	0.00254000	360.00000000	0.00000002	0.02117113	380.36133914
121.00000000	0.00231346	371.44600010	0.00000002	0.02166171	386.36071436
122.00000000	0.00211311	382.89200020	0.00000002	0.02214460	392.26834551
123.00000000	0.00193526	394.33800030	0.00000002	0.02262010	398.08831705
124.00000000	0.00177685	405.78400040	0.00000002	0.02308848	403.82441910
125.00000000	0.00174000	417.23001099	0.00000001	0.02355002	409.48018141
126.00000000	0.00160482	427.63801098	0.00000001	0.02396398	414.55605976
127.00000000	0.00148302	438.04601097	0.00000001	0.02437268	419.57053567
128.00000000	0.00137300	448.45401096	0.00000001	0.02477628	424.52578500
129.00000000	0.00127340	458.86201096	0.00000001	0.02517494	429.42385803
130.00000000	0.00125000	469.26998901	0.00000001	0.02556883	434.26667930
131.00000000	0.00116304	478.30598927	0.00000001	0.02590704	438.42774209
132.00000000	0.00108359	487.34198952	0.00000001	0.02624185	442.54968232
133.00000000	0.00101088	496.37798977	0.00000001	0.02657336	446.63358316
134.00000000	0.00094423	505.41399002	0.00000001	0.02690165	450.68047871
135.00000000	0.00088304	514.44999027	0.00000001	0.02722679	454.69135704
136.00000000	0.00082678	523.48599052	0.00000001	0.02754888	458.66716304
137.00000000	0.00077498	532.52199078	0.00000001	0.02786798	462.60880097
138.00000000	0.00072721	541.55799103	0.00000000	0.02818418	466.51713690
139.00000000	0.00068311	550.59399128	0.00000000	0.02849753	470.39300091
140.00000000	0.00072000	559.63000488	0.00000000	0.02880811	474.23719483
141.00000000	0.00067764	567.10600471	0.00000000	0.02906302	477.39431203
142.00000000	0.00063827	574.58200455	0.00000000	0.02931611	480.53068723
143.00000000	0.00060166	582.05800438	0.00000000	0.02956742	483.64672394
144.00000000	0.00056757	589.53400421	0.00000000	0.02981698	486.74281277
145.00000000	0.00053581	597.01000404	0.00000000	0.03006483	489.81933198
146.00000000	0.00050619	604.48600388	0.00000000	0.03031099	492.87664805
147.00000000	0.00047854	611.96200371	0.00000000	0.03055549	495.91511612
148.00000000	0.00045271	619.43800354	0.00000000	0.03079838	498.93508055
149.00000000	0.00042856	626.91400337	0.00000000	0.03103966	501.93687532
150.00000000	0.00045000	634.39001465	0.00000000	0.03127938	504.92082905
151.00000000	0.00042652	640.58001471	0.00000000	0.03147670	507.37820761
152.00000000	0.00040447	646.77001476	0.00000000	0.03167298	509.82374160
153.00000000	0.00038376	652.96001482	0.00000000	0.03186823	512.25760067
154.00000000	0.00036429	659.15001488	0.00000000	0.03206248	514.67995045
155.00000000	0.00034597	665.34001493	0.00000000	0.03225572	517.09095268
156.00000000	0.00032873	671.53001499	0.00000000	0.03244799	519.49076535
157.00000000	0.00031250	677.72001505	0.00000000	0.03263928	521.87954284
158.00000000	0.00029720	683.91001511	0.00000000	0.03282963	524.25743598
159.00000000	0.00028279	690.10001516	0.00000000	0.03301902	526.62459221
160.00000000	0.00030000	696.28997803	0.00000000	0.03320749	528.98114155
161.00000000	0.00028569	701.41797781	0.00000000	0.03336293	530.92547448
162.00000000	0.00027215	706.54597759	0.00000000	0.03351775	532.86271288
163.00000000	0.00025935	711.67397738	0.00000000	0.03367195	534.79293386
164.00000000	0.00024724	716.80197716	0.00000000	0.03382554	536.71621312
165.00000000	0.00023577	721.92997694	0.00000000	0.03397853	538.63262504
166.00000000	0.00022491	727.05797672	0.00000000	0.03413093	540.54224265
167.00000000	0.00021462	732.18597651	0.00000000	0.03428273	542.44513770
168.00000000	0.00020487	737.31397629	0.00000000	0.03443395	544.34138070
169.00000000	0.00019563	742.44197607	0.00000000	0.03458460	546.23104092
170.00000000	0.00021000	747.57000732	0.00000000	0.03473467	548.11419799
171.00000000	0.00020400	751.82000732	0.00000000	0.03485862	549.67002813
172.00000000	0.00019800	756.07000732	0.00000000	0.03498219	551.22146693
173.00000000	0.00019200	760.32000732	0.00000000	0.03510538	552.76855136
174.00000000	0.00018600	764.57000732	0.00000000	0.03522818	554.31131790
175.00000000	0.00018000	768.82000732	0.00000000	0.03535062	555.84980250
176.00000000	0.00017400	773.07000732	0.00000000	0.03547268	557.38404060
177.00000000	0.00016800	777.32000732	0.00000000	0.03559437	558.91406718
178.00000000	0.00016200	781.57000732	0.00000000	0.03571569	560.43991674
179.00000000	0.00015600	785.82000732	0.00000000	0.03583666	561.96162329
180.00000000	0.00015000	790.07000732	0.00000000	0.03595726	563.47922041
181.00000000	0.00014600	793.59400725	0.00000000	0.03605700	564.73448348
182.00000000	0.00014200	797.11800718	0.00000000	0.03615648	565.98696261
183.00000000	0.00013800	800.64200711	0.00000000	0.03625573	567.23667622
184.00000000	0.00013400	804.16600704	0.00000000	0.03635474	568.48364256
185.00000000	0.00013000	807.69000697	0.00000000	0.03645351	569.72787967
186.00000000	0.00012600	811.21400690	0.00000000	0.03655204	570.96940538
187.00000000	0.00012200	814.73800683	0.00000000	0.03665034	572.20823734
188.00000000	0.00011800	818.26200676	0.00000000	0.03674840	573.44439302
189.00000000	0.00011400	821.78600669	0.00000000	0.03684623	574.67788969
190.00000000	0.00011000	825.30999756	0.00000000	0.03694383	575.90874127
191.00000000	0.00010700	828.23499751	0.00000000	0.03702467	576.92838427
192.00000000	0.00010400	831.15999746	0.00000000	0.03710535	577.94622837
193.00000000	0.00010100	834.08499742	0.00000000	0.03718587	578.96228305
194.00000000	0.00009800	837.00999737	0.00000000	0.03726624	579.97655772
195.00000000	0.00009500	839.93499732	0.00000000	0.03734645	580.98906170
196.00000000	0.00009200	842.85999727	0.00000000	0.03742651	581.99980424
197.00000000	0.00008900	845.78499722	0.00000000	0.03750642	583.00879448
198.00000000	0.00008600	848.70999718	0.00000000	0.03758617	584.01604152
199.00000000	0.00008300	851.63499713	0.00000000	0.03766577	585.02155436
200.00000000	0.00008000	854.55999756	0.00000000	0.03774523	586.02534209